File: 382_U1536A_XRF.csv
Expedition,Site,Hole,Core,Type,Section,A/W,Offset (mm),Depth CSF-A (m),CSF-B (m),Test No.,TextID,Voltage (kV),Tube Current (mA),Live Time (s),Real Time (s),Down-Core Slit (mm),Cross-Core Slit (mm),Filter,Total Counts Per Second,Mg-Ka Area,Al-Ka Area,Si-Ka Area,P -Ka Area,S -Ka Area,Cl-Ka Area,Ar-Ka Area,K -Ka Area,Ca-Ka Area,Ti-Ka Area,Cr-Ka Area,Mn-Ka Area,Fe-Ka Area,Rh-La-Coh Area,Instrument,Scan Number,Date of Measure,Time of Measure,Uploaded By,Date Uploaded,Comment
382,U1536,A,4,H,1,A,20,23.52,23.52,44593672,SHLF9855221,10,0.16,6,7,10,12,No-Filter,124964,10,3563,74952,189,2255,58600,-3750,30048,24877,13802,227,1883,141364,37381,XRF2,1,10/7/2019,11:57:30,LEVAY_B,11/1/2019 22:31,~1mm accessory; with film; XRF 2
382,U1536,A,4,H,1,A,540,24.04,24.04,44593672,SHLF9855221,10,0.16,6,7,10,12,No-Filter,123166,18,2208,53718,137,2859,74196,-3459,21841,21452,11687,120,1768,134000,41561,XRF2,1,10/7/2019,12:04:25,LEVAY_B,11/1/2019 22:31,~1mm accessory; with film; XRF 2
382,U1536,A,4,H,1,A,1060,24.56,24.56,44593672,SHLF9855221,10,0.16,6,7,10,12,No-Filter,129060,-35,3094,89357,219,2642,61852,-3513,23631,25048,13119,236,1829,135136,41370,XRF2,1,10/7/2019,12:11:23,LEVAY_B,11/1/2019 22:31,~1mm accessory; with film; XRF 2
382,U1536,A,4,H,2,A,100,25.1,25.014,44593682,SHLF9855251,10,0.16,6,7,10,12,No-Filter,122755,-38,1895,67010,91,2844,75160,-3776,18000,18081,9830,-28,1855,116589,43812,XRF2,1,10/7/2019,13:27:58,LEVAY_B,11/1/2019 22:31,~1mm accessory; with film; XRF 2
382,U1536,A,4,H,2,A,620,25.62,25.534,44593682,SHLF9855251,10,0.16,6,7,10,12,No-Filter,126753,-40,2756,93395,180,2848,63102,-3412,22071,19939,10591,19,1291,123012,41403,XRF2,1,10/7/2019,13:34:56,LEVAY_B,11/1/2019 22:31,~1mm accessory; with film; XRF 2
382,U1536,A,4,H,2,A,1140,26.14,26.054,44593682,SHLF9855251,10,0.16,6,7,10,12,No-Filter,128368,0,2989,90315,257,2996,63623,-3268,23198,20360,11392,32,1793,130096,41253,XRF2,1,10/7/2019,13:41:53,LEVAY_B,11/1/2019 22:31,~1mm accessory; with film; XRF 2
382,U1536,A,4,H,4,A,180,28.18,27.921,44593692,SHLF9855311,10,0.16,6,7,10,12,No-Filter,131607,-29,2858,79671,164,2848,67891,-3853,24819,25046,12966,101,2093,139632,43544,XRF2,1,10/7/2019,14:59:50,LEVAY_B,11/1/2019 22:31,~1mm accessory; with film; XRF 2
382,U1536,A,4,H,4,A,700,28.7,28.441,44593692,SHLF9855311,10,0.16,6,7,10,12,No-Filter,130658,4,3458,97127,288,2800,59043,-3602,24995,25487,12957,247,1904,133174,41403,XRF2,1,10/7/2019,15:06:49,LEVAY_B,11/1/2019 22:31,~1mm accessory; with film; XRF 2
382,U1536,A,4,H,4,A,1220,29.22,28.961,44593692,SHLF9855311,10,0.16,6,7,10,12,No-Filter,125417,-17,2574,77889,145,3274,68487,-3645,21124,20786,10326,60,1785,121064,42561,XRF2,1,10/7/2019,15:13:46,LEVAY_B,11/1/2019 22:31,~1mm accessory; with film; XRF 2
382,U1536,A,4,H,5,A,300,29.81,29.464,44593702,SHLF9855341,10,0.16,6,7,10,12,No-Filter,132062,-8,3214,93192,215,3229,67699,-3885,24468,22470,11681,124,1845,128493,43167,XRF2,1,10/7/2019,15:49:07,LEVAY_B,11/1/2019 22:31,~1mm accessory; with film; XRF 2
382,U1536,A,4,H,5,A,820,30.33,29.984,44593702,SHLF9855341,10,0.16,6,7,10,12,No-Filter,126585,42,2567,85511,85,3571,70162,-3620,21404,19051,9837,259,1546,114812,43461,XRF2,1,10/7/2019,15:56:07,LEVAY_B,11/1/2019 22:31,~1mm accessory; with film; XRF 2
382,U1536,A,4,H,5,A,1340,30.85,30.504,44593702,SHLF9855341,10,0.16,6,7,10,12,No-Filter,130556,-22,2367,76125,187,4328,73013,-3776,22723,19993,10754,0,1543,136743,43747,XRF2,1,10/7/2019,16:03:06,LEVAY_B,11/1/2019 22:31,~1mm accessory; with film; XRF 2
382,U1536,A,5,H,1,A,380,33.38,33.38,44593712,SHLF9855691,10,0.16,6,7,10,12,No-Filter,121092,-49,1439,65631,83,3612,82286,-4019,15589,14268,7439,-324,1561,92541,44827,XRF2,1,10/7/2019,16:39:08,LEVAY_B,11/1/2019 22:31,~1mm accessory; with film; XRF 2
382,U1536,A,5,H,1,A,900,33.9,33.9,44593712,SHLF9855691,10,0.16,6,7,10,12,No-Filter,116812,-54,1531,71078,88,3428,74880,-3331,16194,13702,7311,-45,1383,88119,44299,XRF2,1,10/7/2019,16:46:01,LEVAY_B,11/1/2019 22:31,~1mm accessory; with film; XRF 2
382,U1536,A,5,H,1,A,1420,34.42,34.42,44593712,SHLF9855691,10,0.16,6,7,10,12,No-Filter,126795,-21,2697,76421,181,2926,70010,-3335,24320,19615,11528,11,1827,124300,42815,XRF2,1,10/7/2019,16:52:57,LEVAY_B,11/1/2019 22:31,~1mm accessory; with film; XRF 2
382,U1536,A,5,H,7,A,460,42.45,42.035,44593722,SHLF9855871,10,0.16,6,7,10,12,No-Filter,115764,-20,1673,70046,87,2924,77501,-3769,13653,14592,6693,-326,1542,81777,43324,XRF2,1,10/7/2019,17:30:38,LEVAY_B,11/1/2019 22:32,~1mm accessory; with film; XRF 2
382,U1536,A,6,H,2,A,500,44.5,44.414,44593732,SHLF9856251,10,0.16,6,7,10,12,No-Filter,124776,-17,2273,77552,115,2736,69657,-3293,20722,15184,9526,-263,2811,121424,42325,XRF2,1,10/7/2019,17:50:46,LEVAY_B,11/1/2019 22:32,~1mm accessory; with film; XRF 2
382,U1536,A,6,H,2,A,1060,45.06,44.974,44593732,SHLF9856251,10,0.16,6,7,10,12,No-Filter,127371,18,3382,93258,149,2728,60156,-3002,25772,16004,11512,225,2416,129251,40189,XRF2,1,10/7/2019,17:57:43,LEVAY_B,11/1/2019 22:32,~1mm accessory; with film; XRF 2
382,U1536,A,6,H,6,A,100,50.1,49.669,44593742,SHLF9856371,10,0.16,6,8,10,12,No-Filter,158731,130,10114,130228,465,1026,36626,-3567,61351,39785,22153,819,3549,218740,39440,XRF2,1,10/7/2019,18:33:16,LEVAY_B,11/1/2019 22:32,~1mm accessory; with film; XRF 2
382,U1536,A,6,H,6,A,620,50.62,50.189,44593742,SHLF9856371,10,0.16,6,8,10,12,No-Filter,154007,189,10741,134731,546,897,29842,-3111,59771,40824,22339,449,3358,211024,37242,XRF2,1,10/7/2019,18:40:23,LEVAY_B,11/1/2019 22:32,~1mm accessory; with film; XRF 2
382,U1536,A,6,H,6,A,1140,51.14,50.709,44593742,SHLF9856371,10,0.16,6,7,10,12,No-Filter,113125,-30,1952,99663,85,1996,62715,-2848,12664,11506,6191,-57,1382,75672,40861,XRF2,1,10/7/2019,18:47:29,LEVAY_B,11/1/2019 22:32,~1mm accessory; with film; XRF 2
382,U1536,A,11,H,1,A,180,90.18,90.18,44593922,SHLF9858751,10,0.16,6,7,10,12,No-Filter,114282,-29,3393,70781,172,1877,42022,609,32155,17642,12774,325,1667,139660,34743,XRF2,1,10/8/2019,9:28:51,LEVAY_B,11/1/2019 22:39,~1mm accessory; with film; XRF 2
382,U1536,A,11,H,1,A,700,90.7,90.7,44593922,SHLF9858751,10,0.16,6,8,10,12,No-Filter,163983,197,10844,122187,629,1950,33026,-3200,57709,48780,24770,911,3507,251046,37782,XRF2,1,10/8/2019,9:35:53,LEVAY_B,11/1/2019 22:39,~1mm accessory; with film; XRF 2
382,U1536,A,11,H,1,A,1220,91.22,91.22,44593922,SHLF9858751,10,0.16,6,8,10,12,No-Filter,160009,149,11429,127457,701,340,28317,-2990,65131,42801,24650,968,3169,240730,36294,XRF2,1,10/8/2019,9:43:00,LEVAY_B,11/1/2019 22:39,~1mm accessory; with film; XRF 2
382,U1536,A,11,H,2,A,260,91.76,91.697,44593932,SHLF9858781,10,0.16,6,8,10,12,No-Filter,148593,203,9433,109736,402,310,24692,-846,52861,51256,21819,903,3496,228234,34910,XRF2,1,10/8/2019,10:20:39,LEVAY_B,11/1/2019 22:39,~1mm accessory; with film; XRF 2
382,U1536,A,11,H,2,A,780,92.28,92.217,44593932,SHLF9858781,10,0.16,6,8,10,12,No-Filter,142947,169,8656,105833,481,425,25332,-338,56425,35489,20816,529,2937,222873,34199,XRF2,1,10/8/2019,10:27:48,LEVAY_B,11/1/2019 22:39,~1mm accessory; with film; XRF 2
382,U1536,A,11,H,2,A,1300,92.8,92.737,44593932,SHLF9858781,10,0.16,6,7,10,12,No-Filter,126204,37,6445,86206,288,1108,22600,1153,46339,34798,18481,667,2384,189368,32866,XRF2,1,10/8/2019,10:34:55,LEVAY_B,11/1/2019 22:39,~1mm accessory; with film; XRF 2
382,U1536,A,11,H,4,A,340,94.84,94.65,44593602,SHLF9858841,10,0.16,6,7,10,12,No-Filter,122309,9,3298,105034,191,2132,52357,-2339,20869,18481,11834,515,1728,121799,38112,XRF2,1,10/8/2019,11:18:52,LEVAY_B,11/1/2019 22:30,~1mm accessory; with film; XRF 2
382,U1536,A,11,H,4,A,860,95.36,95.17,44593602,SHLF9858841,10,0.16,6,7,10,12,No-Filter,127481,31,3122,103116,151,2621,58624,-3107,20983,19221,11867,313,1504,128424,41096,XRF2,1,10/8/2019,11:25:53,LEVAY_B,11/1/2019 22:30,~1mm accessory; with film; XRF 2
382,U1536,A,11,H,4,A,1380,95.88,95.69,44593602,SHLF9858841,10,0.16,6,7,10,12,No-Filter,133530,33,3846,93797,188,1934,59727,-3597,27464,24690,15595,209,1933,151103,41091,XRF2,1,10/8/2019,11:32:54,LEVAY_B,11/1/2019 22:30,~1mm accessory; with film; XRF 2
382,U1536,A,17,H,4,A,420,151.87,151.87,44593612,SHLF9862371,10,0.16,6,7,10,12,No-Filter,135325,92,6416,127377,316,2913,32396,-2035,37766,25092,17293,693,2098,172099,35559,XRF2,1,10/8/2019,12:08:43,LEVAY_B,11/1/2019 22:31,~1mm accessory; with film; XRF 2
382,U1536,A,17,H,4,A,940,152.39,152.39,44593612,SHLF9862371,10,0.16,6,7,10,12,No-Filter,137306,65,7149,136107,506,2815,30949,-2062,41134,23518,17313,469,1955,171812,35795,XRF2,1,10/8/2019,12:15:56,LEVAY_B,11/1/2019 22:31,~1mm accessory; with film; XRF 2
382,U1536,A,17,H,4,A,1460,152.91,152.91,44593612,SHLF9862371,10,0.16,6,7,10,12,No-Filter,104683,3,4900,89412,162,2836,17934,2646,30522,13734,14887,391,1323,125174,30878,XRF2,1,10/8/2019,12:23:08,LEVAY_B,11/1/2019 22:31,~1mm accessory; with film; XRF 2
382,U1536,A,17,H,5,A,1000,153.91,153.91,44593622,SHLF9862401,10,0.16,6,8,10,12,No-Filter,165861,259,12893,144173,642,475,18694,-2426,68160,63118,24691,894,3083,246738,35181,XRF2,1,10/8/2019,13:33:54,LEVAY_B,11/1/2019 22:31,~1mm accessory; with film; XRF 2
382,U1536,A,21,H,5,A,880,191.74,191.503,44593632,SHLF9864491,10,0.16,6,7,10,12,No-Filter,134939,127,6836,122165,356,1728,26882,-1594,39083,35547,17582,593,2304,181195,32769,XRF2,1,10/8/2019,14:01:59,LEVAY_B,11/1/2019 22:31,~1mm accessory; with film; XRF 2
382,U1536,A,21,H,6,A,720,193.04,192.744,44593642,SHLF9864521,10,0.16,6,7,10,12,No-Filter,127172,29,4091,108070,377,1967,34590,-1662,23917,53007,13040,757,1966,147083,33736,XRF2,1,10/8/2019,14:23:40,LEVAY_B,11/1/2019 22:31,~1mm accessory; with film; XRF 2
382,U1536,A,22,H,4,A,320,198.15,198.032,44593652,SHLF9865281,10,0.16,6,7,10,12,No-Filter,112386,58,3960,103371,194,2650,25493,-1585,24517,16088,11385,357,2132,143240,29682,XRF2,1,10/8/2019,14:47:30,LEVAY_B,11/1/2019 22:31,~1mm accessory; with film; XRF 2
382,U1536,A,22,H,4,A,1360,199.19,199.072,44593652,SHLF9865281,10,0.16,6,8,10,12,No-Filter,147355,125,8017,134355,415,794,27996,-2115,48945,28930,18427,587,3254,215944,34317,XRF2,1,10/8/2019,14:54:36,LEVAY_B,11/1/2019 22:31,~1mm accessory; with film; XRF 2
382,U1536,A,22,H,5,A,960,200.26,200.09,44593662,SHLF9865311,10,0.16,6,8,10,12,No-Filter,147117,141,7674,136470,346,1110,30816,-2115,44083,33615,17671,1051,3239,201850,34880,XRF2,1,10/8/2019,15:18:14,LEVAY_B,11/1/2019 22:31,~1mm accessory; with film; XRF 2
382,U1536,A,22,H,5,A,1400,200.7,200.53,44593662,SHLF9865311,10,0.16,6,7,10,12,No-Filter,122502,0,3714,127039,176,2309,31683,-1622,22951,17734,12471,252,1761,129849,33335,XRF2,1,10/8/2019,15:21:18,LEVAY_B,11/1/2019 22:31,~1mm accessory; with film; XRF 2